File: data/exp_raw/FeS_and_FeS2/FeS std.msa
#FORMAT      : EMSA/MAS Spectral Data File
#VERSION     : 1.0
#TITLE       : FeS std
#DATE        : 25-NOV-2020
#TIME        : 10:24
#OWNER       : Unknown
#NPOINTS     : 4096
#NCOLUMNS    : 1
#XUNITS      : eV
#YUNITS      : counts
#DATATYPE    : Y
#XPERCHAN    : 9.99864
#OFFSET      : 2.58389
#BEAMKV      : 20
#SIGNALTYPE  : EDS
#ELEVANGLE   : 35
#AZIMANGLE   : 0
#LIVETIME    : 707.401
#REALTIME    : 922.83
#PROBECUR    : 1.0293
#TAUWIND     : 0
#TDEADLYR    : 0
#TACTLYR     : 0.045
#TALWIND     : 0.003
#CHOFFSET    : 0.0
#XLABEL      : Energy (eV)
#YLABEL      : Counts
#EDSDET      : SDUTW
##SPECIMEN   : FeS std
##D2STDCMP   : FeS,(S:36.4748),(Fe:63.5252),5.0
##DET_HASH   : 97086dfe-e5c2-9c77-3984-1d0b14bbbf41
##CALIB_HASH : 74de4f47-d9d5-d258-4eaf-eeb143e27589
##WORKING    : 17.0 mm
##SAMPLE     : <BulkSample id="1">\n<mOrientation id="2">\n<double>0.0</double>\n<double>0.0</double>\n<double>-1.0</double>\n</mOrientation>\n</BulkSample>
#SPECTRUM    :
4,
71,
18684,
6708,
50748,
191197,
10963,
14451,
14628,
17239,
19890,
21179,
22009,
23853,
23480,
25777,
269612,
238941,
49043,
15439,
15201,
15910,
15483,
15087,
14775,
14325,
13760,
13721,
13314,
13035,
12366,
12200,
11864,
14486,
11602,
10885,
10452,
10230,
10053,
9626,
9329,
8935,
8777,
8588,
9771,
115076,
369512,
11875,
7565,
8388,
46758,
27772,
5357,
5171,
5039,
4993,
4889,
5222,
4886,
4543,
4382,
4421,
5476,
4583,
4139,
3803,
3773,
3776,
3622,
3425,
3266,
3189,
3186,
3101,
2964,
2862,
2782,
2603,
2542,
2509,
2392,
2315,
2210,
2227,
2163,
2053,
1961,
1832,
1814,
1780,
1839,
1831,
1680,
1459,
1328,
1314,
1262,
1237,
1098,
1122,
1042,
1010,
935,
888,
867,
849,
817,
771,
643,
646,
637,
546,
506,
471,
495,
473,
433,
429,
373,
367,
339,
322,
306,
294,
232,
198,
175,
183,
174,
163,
132,
135,
110,
82,
95,
83,
68,
64,
33,
34,
25,
19,
18,
3,
0,
5,
1,
3,
2,
1,
0,
2,
1,
3,
0,
2,
0,
2,
2,
0,
2,
0,
0,
0,
2,
0,
0,
1,
0,
0,
0,
0,
0,
1,
0,
0,
0,
0,
0,
0,
1,
0,
2,
0,
0,
0,
0,
0,
0,
0,
0,
0,
0,
0,
0,
0,
0,
0,
0,
0,
0,
0,
0,
0,
0,
0,
0,
0,
0,
0,
0,
0,
0,
0,
0,
0,
0,
0,
0,
0,
0,
0,
0,
0,
0,
0,
0,
0,
0,
0,
0,
0,
0,
0,
0,
0,
0,
0,
0,
0,
0,
0,
0,
0,
0,
0,
0,
0,
0,
0,
0,
0,
0,
0,
0,
0,
0,
0,
0,
0,
0,
0,
0,
0,
0,
0,
0,
0,
0,
0,
0,
0,
0,
0,
0,
0,
0,
0,
0,
0,
0,
0,
0,
0,
0,
0,
0,
0,
0,
0,
0,
0,
0,
0,
#ENDOFDATA   :