File: data/exp_raw/FeS_and_FeS2/FeS2 std.msa
#FORMAT      : EMSA/MAS Spectral Data File
#VERSION     : 1.0
#TITLE       : FeS2 std
#DATE        : 25-NOV-2020
#TIME        : 09:18
#OWNER       : Unknown
#NPOINTS     : 4096
#NCOLUMNS    : 1
#XUNITS      : eV
#YUNITS      : counts
#DATATYPE    : Y
#XPERCHAN    : 9.99864
#OFFSET      : 2.58389
#BEAMKV      : 20
#SIGNALTYPE  : EDS
#ELEVANGLE   : 35
#AZIMANGLE   : 0
#LIVETIME    : 705.753
#REALTIME    : 945.287
#PROBECUR    : 1.03663
#TAUWIND     : 0
#TDEADLYR    : 0
#TACTLYR     : 0.045
#TALWIND     : 0.003
#CHOFFSET    : 0.0
#XLABEL      : Energy (eV)
#YLABEL      : Counts
#EDSDET      : SDUTW
##SPECIMEN   : FeS2 std
##D2STDCMP   : FeS2,(S:53.4528),(Fe:46.5472),5.05
##DET_HASH   : 97086dfe-e5c2-9c77-3984-1d0b14bbbf41
##CALIB_HASH : 74de4f47-d9d5-d258-4eaf-eeb143e27589
##WORKING    : 17.0 mm
##SAMPLE     : <BulkSample id="1">\n<mOrientation id="2">\n<double>0.0</double>\n<double>0.0</double>\n<double>-1.0</double>\n</mOrientation>\n</BulkSample>
#SPECTRUM    :
2,
87,
17052,
5819,
54640,
189771,
11547,
14488,
16213,
19047,
21556,
22890,
23321,
25098,
25108,
27813,
405975,
353515,
61308,
12888,
13201,
13942,
13465,
13123,
12766,
12781,
12466,
12218,
11757,
11619,
11441,
10963,
10980,
15331,
10813,
9769,
9319,
9200,
9118,
8727,
8334,
8086,
7688,
7580,
8489,
84850,
266022,
9849,
6638,
7476,
35350,
21272,
4999,
4908,
4785,
4665,
4542,
4533,
4515,
4300,
4105,
4132,
5185,
4124,
3640,
3562,
3448,
3411,
3285,
3124,
3094,
2850,
2879,
2833,
2681,
2778,
2630,
2429,
2376,
2283,
2267,
2163,
2059,
2024,
1882,
1793,
1780,
1672,
1659,
1530,
1536,
1514,
1440,
1331,
1249,
1220,
1111,
1145,
1043,
986,
980,
932,
878,
868,
817,
747,
704,
636,
619,
612,
561,
526,
482,
484,
450,
407,
340,
381,
359,
318,
294,
289,
268,
233,
199,
201,
160,
181,
164,
128,
118,
83,
103,
100,
86,
57,
49,
22,
36,
26,
26,
16,
9,
4,
2,
5,
0,
1,
1,
0,
2,
4,
1,
2,
0,
1,
1,
0,
0,
0,
1,
2,
0,
0,
0,
0,
0,
0,
1,
0,
1,
2,
0,
0,
1,
0,
1,
0,
1,
0,
0,
0,
0,
0,
1,
0,
1,
0,
0,
0,
0,
0,
0,
0,
1,
0,
0,
0,
0,
0,
0,
0,
0,
0,
0,
0,
0,
1,
0,
0,
0,
0,
0,
0,
0,
0,
0,
0,
0,
0,
0,
0,
0,
0,
0,
0,
0,
0,
0,
0,
0,
0,
0,
0,
0,
0,
0,
0,
0,
0,
0,
0,
0,
0,
0,
0,
0,
0,
0,
0,
0,
0,
0,
0,
0,
0,
0,
0,
0,
0,
0,
0,
0,
0,
0,
0,
0,
0,
0,
0,
0,
0,
0,
0,
0,
0,
0,
0,
0,
0,
0,
0,
0,
0,
0,
0,
0,
0,
0,
0,
0,
0,
0,
0,
#ENDOFDATA   :