File: data/exp_raw/K2496/C std.msa
#FORMAT      : EMSA/MAS Spectral Data File
#VERSION     : 1.0
#TITLE       : Bruker AXS spectrum Cu_10kV20nAMED123kHz11DT_50s.msa
#DATE        : 24-JAN-2013
#TIME        : 02:54
#OWNER       : Bruker AXS
#NPOINTS     : 4096
#NCOLUMNS    : 1
#XUNITS      : eV
#YUNITS      : counts
#DATATYPE    : Y
#XPERCHAN    : 4.98077
#OFFSET      : -473.324
#BEAMKV      : 10
#SIGNALTYPE  : EDS
#ELEVANGLE   : 40
#AZIMANGLE   : 0
#LIVETIME    : 50.751
#REALTIME    : 54.727
#PROBECUR    : 20
#TDEADLYR    : 0.00001
#TACTLYR     : 0.045
#TALWIND     : 0.004
#CHOFFSET    : 0.0
#XLABEL      : Energy (eV)
#YLABEL      : Counts
#EDSDET      : SDDUTW
##D2STDCMP   : C,(C:100.0),2.0
##DET_HASH   : 29d35019-c5e1-311a-ffb2-bbc1a5950369
##CALIB_HASH : 043ba274-c987-fc55-1349-ceef0c075250
#SPECTRUM    :
0,
0,
0,
0,
0,
0,
9135,
242504,
114,
762,
103398,
217309,
2194,
2760,
4350,
1163,
1029,
1200,
1425,
1474,
1606,
1675,
1703,
1652,
1640,
1599,
1534,
1443,
1396,
1288,
1237,
1285,
1440,
1074,
952,
895,
855,
794,
777,
765,
779,
725,
658,
632,
614,
570,
564,
572,
528,
536,
482,
447,
454,
454,
400,
380,
382,
377,
365,
372,
347,
309,
300,
305,
303,
271,
246,
224,
253,
224,
227,
210,
223,
219,
198,
186,
182,
197,
166,
154,
161,
151,
150,
142,
138,
131,
128,
140,
115,
121,
103,
102,
93,
105,
105,
98,
87,
99,
88,
88,
66,
75,
69,
74,
79,
54,
52,
62,
62,
52,
52,
56,
42,
40,
50,
44,
34,
41,
48,
33,
36,
32,
36,
28,
33,
25,
24,
22,
23,
18,
23,
16,
17,
22,
8,
11,
15,
9,
13,
8,
9,
9,
6,
10,
6,
2,
3,
3,
2,
0,
0,
0,
0,
0,
0,
0,
0,
0,
0,
0,
0,
0,
0,
0,
0,
0,
0,
1,
0,
0,
0,
0,
0,
0,
0,
0,
0,
0,
0,
0,
0,
0,
0,
0,
0,
0,
0,
0,
0,
0,
0,
0,
0,
0,
0,
0,
0,
0,
0,
0,
0,
0,
0,
0,
0,
0,
0,
0,
0,
0,
0,
0,
0,
0,
0,
0,
0,
0,
0,
0,
0,
0,
0,
0,
0,
0,
0,
0,
0,
0,
0,
0,
0,
0,
0,
0,
0,
0,
0,
0,
0,
0,
0,
0,
0,
0,
0,
0,
0,
0,
0,
0,
0,
0,
0,
0,
0,
0,
0,
0,
0,
0,
0,
0,
0,
0,
0,
0,
0,
0,
0,
0,
0,
0,
0,
0,
0,
0,
0,
0,
0,
0,
0,
0,
0,
0,
0,
0,
0,
0,
0,
0,
0,
0,
#ENDOFDATA   :